#LICA Lamps Spectra Database
#Website 1: https://guaix.fis.ucm.es/lamps_spectra
#Website 2: http://carlostapia.es/lamparas/lamps.html
#Latest update: 2017/02/07
#Tester: Carlos Eugenio Tapia Ayuga
#Correct for Electrical Dark: Yes (JAZA2310)
#Correct for Detector Non-linearity: Yes (JAZA2310)
#Correct for Flux: Yes
#Start wavelength (nm): 300
#End wavelength (nm): 900
#Steps (nm):	1
#Locus: D65 sRGB Gamma 1 CIE1931
#XYZ coordinates: 0.4022	0.3634	0.1264
#xyY coordinates: 0.4508	0.4074	0.3634
#sRGB: 174	76	21
#CCT Lindbloom (K):	2805
#CCT McCamy (K):	2806
#CCT Hernández-Andrés (K):	2734
#Melatonin: 0.363
#Chlorophyll a: 3.288
#Chlorophyll b: 0.582
#Beta Carotene: 3.274
#Manufacturer: Philips
#Luminance manufacturer: Unknown
#Other data: 40W
#Begin Processed Spectral Data
W	S
300.00000000	0.00402869
301.00000000	0.00398366
302.00000000	0.00161860
303.00000000	0.00664147
304.00000000	0.00446519
305.00000000	0.00462080
306.00000000	0.00592138
307.00000000	0.00815016
308.00000000	0.00911669
309.00000000	0.00276543
310.00000000	0.00598168
311.00000000	0.00636967
312.00000000	0.00691369
313.00000000	0.00902841
314.00000000	0.00799429
315.00000000	0.00890060
316.00000000	0.00889950
317.00000000	0.00804381
318.00000000	0.00940605
319.00000000	0.01021823
320.00000000	0.00953978
321.00000000	0.01136260
322.00000000	0.01212381
323.00000000	0.01162015
324.00000000	0.01223711
325.00000000	0.01329642
326.00000000	0.01494038
327.00000000	0.01426252
328.00000000	0.01517512
329.00000000	0.01565147
330.00000000	0.01485184
331.00000000	0.01711199
332.00000000	0.01684350
333.00000000	0.01798286
334.00000000	0.01680483
335.00000000	0.01740635
336.00000000	0.01751143
337.00000000	0.01986495
338.00000000	0.01922815
339.00000000	0.02077653
340.00000000	0.02081571
341.00000000	0.02030255
342.00000000	0.02001794
343.00000000	0.02181837
344.00000000	0.02211527
345.00000000	0.02249037
346.00000000	0.02149594
347.00000000	0.02279372
348.00000000	0.02275928
349.00000000	0.02410066
350.00000000	0.02390136
351.00000000	0.02435304
352.00000000	0.02373285
353.00000000	0.02537087
354.00000000	0.02464485
355.00000000	0.02655815
356.00000000	0.02558815
357.00000000	0.02548765
358.00000000	0.02702993
359.00000000	0.02583391
360.00000000	0.02677551
361.00000000	0.02836333
362.00000000	0.02771516
363.00000000	0.02752689
364.00000000	0.02890684
365.00000000	0.02890964
366.00000000	0.02886512
367.00000000	0.02959928
368.00000000	0.02982800
369.00000000	0.02926396
370.00000000	0.03087298
371.00000000	0.03114300
372.00000000	0.03100511
373.00000000	0.03138122
374.00000000	0.03207976
375.00000000	0.03247487
376.00000000	0.03199080
377.00000000	0.03274981
378.00000000	0.03286820
379.00000000	0.03226973
380.00000000	0.03375620
381.00000000	0.03427648
382.00000000	0.03512869
383.00000000	0.03572327
384.00000000	0.03620233
385.00000000	0.03730956
386.00000000	0.03760281
387.00000000	0.03888575
388.00000000	0.03919911
389.00000000	0.03979945
390.00000000	0.04031999
391.00000000	0.04113208
392.00000000	0.04092838
393.00000000	0.04169375
394.00000000	0.04293522
395.00000000	0.04399241
396.00000000	0.04482995
397.00000000	0.04567962
398.00000000	0.04754780
399.00000000	0.04805570
400.00000000	0.04864094
401.00000000	0.05091730
402.00000000	0.05106011
403.00000000	0.05213129
404.00000000	0.05366093
405.00000000	0.05369154
406.00000000	0.05459939
407.00000000	0.05579777
408.00000000	0.05813324
409.00000000	0.05891184
410.00000000	0.05914098
411.00000000	0.06095981
412.00000000	0.06150672
413.00000000	0.06282994
414.00000000	0.06468676
415.00000000	0.06529473
416.00000000	0.06582926
417.00000000	0.06676967
418.00000000	0.06735000
419.00000000	0.06925193
420.00000000	0.07034296
421.00000000	0.07010491
422.00000000	0.07185784
423.00000000	0.07405312
424.00000000	0.07491712
425.00000000	0.07511633
426.00000000	0.07649866
427.00000000	0.07692896
428.00000000	0.07832283
429.00000000	0.08134895
430.00000000	0.08278869
431.00000000	0.08255480
432.00000000	0.08414804
433.00000000	0.08573374
434.00000000	0.08658264
435.00000000	0.08977532
436.00000000	0.09011988
437.00000000	0.09156641
438.00000000	0.09273147
439.00000000	0.09416960
440.00000000	0.09614642
441.00000000	0.09738484
442.00000000	0.09810442
443.00000000	0.10007021
444.00000000	0.10066673
445.00000000	0.10224717
446.00000000	0.10373797
447.00000000	0.10546716
448.00000000	0.10721195
449.00000000	0.10840177
450.00000000	0.10970913
451.00000000	0.11083840
452.00000000	0.11218749
453.00000000	0.11311713
454.00000000	0.11357016
455.00000000	0.11652589
456.00000000	0.11786277
457.00000000	0.11844674
458.00000000	0.11993576
459.00000000	0.12108309
460.00000000	0.12348436
461.00000000	0.12417112
462.00000000	0.12632001
463.00000000	0.12650370
464.00000000	0.13049194
465.00000000	0.13104351
466.00000000	0.13121100
467.00000000	0.13365765
468.00000000	0.13687102
469.00000000	0.13711415
470.00000000	0.13969411
471.00000000	0.14294497
472.00000000	0.14426081
473.00000000	0.14547099
474.00000000	0.14708204
475.00000000	0.14975223
476.00000000	0.15147438
477.00000000	0.15362564
478.00000000	0.15400090
479.00000000	0.15680806
480.00000000	0.15723378
481.00000000	0.15977320
482.00000000	0.16179361
483.00000000	0.16441622
484.00000000	0.16496754
485.00000000	0.16744692
486.00000000	0.17043903
487.00000000	0.17205017
488.00000000	0.17297955
489.00000000	0.17469551
490.00000000	0.17703801
491.00000000	0.17837667
492.00000000	0.17979199
493.00000000	0.18287917
494.00000000	0.18503383
495.00000000	0.18647908
496.00000000	0.18927597
497.00000000	0.19173517
498.00000000	0.19253649
499.00000000	0.19483049
500.00000000	0.19691772
501.00000000	0.19963379
502.00000000	0.20194390
503.00000000	0.20447424
504.00000000	0.20552168
505.00000000	0.20671778
506.00000000	0.20865024
507.00000000	0.21234234
508.00000000	0.21348162
509.00000000	0.21520173
510.00000000	0.21855986
511.00000000	0.22231251
512.00000000	0.22462448
513.00000000	0.22470089
514.00000000	0.22726346
515.00000000	0.23109473
516.00000000	0.23317162
517.00000000	0.23404698
518.00000000	0.23567330
519.00000000	0.23732811
520.00000000	0.23956291
521.00000000	0.24155516
522.00000000	0.24443075
523.00000000	0.24755312
524.00000000	0.25048418
525.00000000	0.25182801
526.00000000	0.25519131
527.00000000	0.25689658
528.00000000	0.25998682
529.00000000	0.26243380
530.00000000	0.26306916
531.00000000	0.26526223
532.00000000	0.26742766
533.00000000	0.26889709
534.00000000	0.27202845
535.00000000	0.27172866
536.00000000	0.27644776
537.00000000	0.27649873
538.00000000	0.28002121
539.00000000	0.28361451
540.00000000	0.28540874
541.00000000	0.28838127
542.00000000	0.28886584
543.00000000	0.29420360
544.00000000	0.29574536
545.00000000	0.29783039
546.00000000	0.29997818
547.00000000	0.30354714
548.00000000	0.30515370
549.00000000	0.30458041
550.00000000	0.30988110
551.00000000	0.31282852
552.00000000	0.31249964
553.00000000	0.31585871
554.00000000	0.32074072
555.00000000	0.32323655
556.00000000	0.32806640
557.00000000	0.33088516
558.00000000	0.33397226
559.00000000	0.33535824
560.00000000	0.33735075
561.00000000	0.34228151
562.00000000	0.34365977
563.00000000	0.34592103
564.00000000	0.34665655
565.00000000	0.35119866
566.00000000	0.35466746
567.00000000	0.35872151
568.00000000	0.36053703
569.00000000	0.36024165
570.00000000	0.36008790
571.00000000	0.36285875
572.00000000	0.36585994
573.00000000	0.36811492
574.00000000	0.37056767
575.00000000	0.37291534
576.00000000	0.37497527
577.00000000	0.37550013
578.00000000	0.37664221
579.00000000	0.38099299
580.00000000	0.38479635
581.00000000	0.39020110
582.00000000	0.39157758
583.00000000	0.39317210
584.00000000	0.39366728
585.00000000	0.40016415
586.00000000	0.40408955
587.00000000	0.40725169
588.00000000	0.40875962
589.00000000	0.41066928
590.00000000	0.41398009
591.00000000	0.41489658
592.00000000	0.41635634
593.00000000	0.42169748
594.00000000	0.42164355
595.00000000	0.42438336
596.00000000	0.42633788
597.00000000	0.42764846
598.00000000	0.43392306
599.00000000	0.43533957
600.00000000	0.43906881
601.00000000	0.44340705
602.00000000	0.44572410
603.00000000	0.44834672
604.00000000	0.45129261
605.00000000	0.45181451
606.00000000	0.45152634
607.00000000	0.45214686
608.00000000	0.45290299
609.00000000	0.45537134
610.00000000	0.45812040
611.00000000	0.46274866
612.00000000	0.46343093
613.00000000	0.46481682
614.00000000	0.46704110
615.00000000	0.47488469
616.00000000	0.48232435
617.00000000	0.48860980
618.00000000	0.49311417
619.00000000	0.49626257
620.00000000	0.49705491
621.00000000	0.49702625
622.00000000	0.49851128
623.00000000	0.50315227
624.00000000	0.50643272
625.00000000	0.50805361
626.00000000	0.51000041
627.00000000	0.51328959
628.00000000	0.51872546
629.00000000	0.51922276
630.00000000	0.51785561
631.00000000	0.51996006
632.00000000	0.51823215
633.00000000	0.52660484
634.00000000	0.53151865
635.00000000	0.53246889
636.00000000	0.53043466
637.00000000	0.53717705
638.00000000	0.53719748
639.00000000	0.53821668
640.00000000	0.53694994
641.00000000	0.54730869
642.00000000	0.54992732
643.00000000	0.54646589
644.00000000	0.54878346
645.00000000	0.55294691
646.00000000	0.55631827
647.00000000	0.55979123
648.00000000	0.56243716
649.00000000	0.56613952
650.00000000	0.56817113
651.00000000	0.56939292
652.00000000	0.56777101
653.00000000	0.56765508
654.00000000	0.57382512
655.00000000	0.57555609
656.00000000	0.58216193
657.00000000	0.58112112
658.00000000	0.58416080
659.00000000	0.59065038
660.00000000	0.58792499
661.00000000	0.58961915
662.00000000	0.59178195
663.00000000	0.59664097
664.00000000	0.59572524
665.00000000	0.60145632
666.00000000	0.59583896
667.00000000	0.60457928
668.00000000	0.60588622
669.00000000	0.61236427
670.00000000	0.61514140
671.00000000	0.61820153
672.00000000	0.62425673
673.00000000	0.62570614
674.00000000	0.62316452
675.00000000	0.62565891
676.00000000	0.62773164
677.00000000	0.63343491
678.00000000	0.63180486
679.00000000	0.63394119
680.00000000	0.63620432
681.00000000	0.64107759
682.00000000	0.64408666
683.00000000	0.64753409
684.00000000	0.64535272
685.00000000	0.64858305
686.00000000	0.64806235
687.00000000	0.64872918
688.00000000	0.65281146
689.00000000	0.65236920
690.00000000	0.65942774
691.00000000	0.66040352
692.00000000	0.67110293
693.00000000	0.67050412
694.00000000	0.67339905
695.00000000	0.67693841
696.00000000	0.67990508
697.00000000	0.67626200
698.00000000	0.68108099
699.00000000	0.68464741
700.00000000	0.69142567
701.00000000	0.70190137
702.00000000	0.69754261
703.00000000	0.69902646
704.00000000	0.70476754
705.00000000	0.70646756
706.00000000	0.70028684
707.00000000	0.70391626
708.00000000	0.71257695
709.00000000	0.71008002
710.00000000	0.71269975
711.00000000	0.72012686
712.00000000	0.72417446
713.00000000	0.72363154
714.00000000	0.72870410
715.00000000	0.73167213
716.00000000	0.73044185
717.00000000	0.73247574
718.00000000	0.73746291
719.00000000	0.74053398
720.00000000	0.74233567
721.00000000	0.74717900
722.00000000	0.75112052
723.00000000	0.74772939
724.00000000	0.75073838
725.00000000	0.75516523
726.00000000	0.75121660
727.00000000	0.74919187
728.00000000	0.75319444
729.00000000	0.75884741
730.00000000	0.76258183
731.00000000	0.76317775
732.00000000	0.77157114
733.00000000	0.76989843
734.00000000	0.76458180
735.00000000	0.76909676
736.00000000	0.77276495
737.00000000	0.77399692
738.00000000	0.77468961
739.00000000	0.77614479
740.00000000	0.78402170
741.00000000	0.78652254
742.00000000	0.78818821
743.00000000	0.78354272
744.00000000	0.78632816
745.00000000	0.78816938
746.00000000	0.78153105
747.00000000	0.78120641
748.00000000	0.78137628
749.00000000	0.79058922
750.00000000	0.79387256
751.00000000	0.79577297
752.00000000	0.79404251
753.00000000	0.78868423
754.00000000	0.79893817
755.00000000	0.79738105
756.00000000	0.80757087
757.00000000	0.81054034
758.00000000	0.81317169
759.00000000	0.81482735
760.00000000	0.82944275
761.00000000	0.82976128
762.00000000	0.82789734
763.00000000	0.83684899
764.00000000	0.83480755
765.00000000	0.83755381
766.00000000	0.84178112
767.00000000	0.83928673
768.00000000	0.83903876
769.00000000	0.83828051
770.00000000	0.84183879
771.00000000	0.84224611
772.00000000	0.84134055
773.00000000	0.83713606
774.00000000	0.84677023
775.00000000	0.86111739
776.00000000	0.86568316
777.00000000	0.85645834
778.00000000	0.85926227
779.00000000	0.84861153
780.00000000	0.86210953
781.00000000	0.86343047
782.00000000	0.86601950
783.00000000	0.87253350
784.00000000	0.87857514
785.00000000	0.88201774
786.00000000	0.88544211
787.00000000	0.87997367
788.00000000	0.89449621
789.00000000	0.90519588
790.00000000	0.90141414
791.00000000	0.89844679
792.00000000	0.89928255
793.00000000	0.89381386
794.00000000	0.89812597
795.00000000	0.88936657
796.00000000	0.89689214
797.00000000	0.90261236
798.00000000	0.90478907
799.00000000	0.91113176
800.00000000	0.90275687
801.00000000	0.90192501
802.00000000	0.91042669
803.00000000	0.90689996
804.00000000	0.89853313
805.00000000	0.89573064
806.00000000	0.90475642
807.00000000	0.90751735
808.00000000	0.90771291
809.00000000	0.90809708
810.00000000	0.90643277
811.00000000	0.92356783
812.00000000	0.92132591
813.00000000	0.91432809
814.00000000	0.91891039
815.00000000	0.92375254
816.00000000	0.92289846
817.00000000	0.92630875
818.00000000	0.91266785
819.00000000	0.91167656
820.00000000	0.92830694
821.00000000	0.93369006
822.00000000	0.94826713
823.00000000	0.95609180
824.00000000	0.95540946
825.00000000	0.95370029
826.00000000	0.95602888
827.00000000	0.96043402
828.00000000	0.96352943
829.00000000	0.95559832
830.00000000	0.95857941
831.00000000	0.95383385
832.00000000	0.95433616
833.00000000	0.95090984
834.00000000	0.95606611
835.00000000	0.96541822
836.00000000	0.95397107
837.00000000	0.95496737
838.00000000	0.96199792
839.00000000	0.96068352
840.00000000	0.96877169
841.00000000	0.95447694
842.00000000	0.95309562
843.00000000	0.95633350
844.00000000	0.95069876
845.00000000	0.95226928
846.00000000	0.95882416
847.00000000	0.96217864
848.00000000	0.95717002
849.00000000	0.95825944
850.00000000	0.97003648
851.00000000	0.96479125
852.00000000	0.95794031
853.00000000	0.97656091
854.00000000	0.97407882
855.00000000	0.97078082
856.00000000	0.96109992
857.00000000	0.95714789
858.00000000	0.96177539
859.00000000	0.97413980
860.00000000	0.97915215
861.00000000	0.97556589
862.00000000	0.96984592
863.00000000	0.97470944
864.00000000	0.98692162
865.00000000	0.99107319
866.00000000	0.98231387
867.00000000	0.98576546
868.00000000	0.98709403
869.00000000	0.98226842
870.00000000	0.99392834
871.00000000	0.99688068
872.00000000	0.99367053
873.00000000	0.99092122
874.00000000	0.99099924
875.00000000	1.00000000
876.00000000	0.99162858
877.00000000	0.99444549
878.00000000	0.97827042
879.00000000	0.95903541
880.00000000	0.96013864
881.00000000	0.95939244
882.00000000	0.97160453
883.00000000	0.97416804
884.00000000	0.98181750
885.00000000	0.97244411
886.00000000	0.96285497
887.00000000	0.97769197
888.00000000	0.98076363
889.00000000	0.96740649
890.00000000	0.98465637
891.00000000	0.97446443
892.00000000	0.97703506
893.00000000	0.97710986
894.00000000	0.95403009
895.00000000	0.95690060
896.00000000	0.95900649
897.00000000	0.94359451
898.00000000	0.95727238
899.00000000	0.95898707
900.00000000	0.95625387
