#LICA Lamps Spectra Database
#Website 1: https://guaix.fis.ucm.es/lamps_spectra
#Website 2: http://carlostapia.es/lamparas/lamps.html
#Latest update: 2017/12/17
#Tester: Carlos Eugenio Tapia Ayuga
#Correct for Electrical Dark: Yes (JAZA2310)
#Correct for Detector Non-linearity: Yes (JAZA2310)
#Correct for Flux: Yes
#Start wavelength (nm): 300
#End wavelength (nm): 900
#Steps (nm):	1
#Locus: D65 sRGB Gamma 1 CIE1931
#XYZ coordinates: 0.7846	0.7000	0.3452
#xyY coordinates: 0.4288	0.3826	0.7000
#sRGB: 255	112	52
#CCT Lindbloom (K):	2958
#CCT McCamy (K):	2964
#CCT Hernández-Andrés (K):	2929
#Melatonin: 0.369
#Chlorophyll a: 0.181
#Chlorophyll b: 0.678
#Beta Carotene: 0.181
#Manufacturer: Philips
#Luminance manufacturer: Unknown
#Other data:
#Begin Processed Spectral Data
W	S
475.00000000	0.15024314
476.00000000	0.14124617
477.00000000	0.13233647
478.00000000	0.12717388
479.00000000	0.12107098
480.00000000	0.11489443
481.00000000	0.11358681
482.00000000	0.10698973
483.00000000	0.11118744
484.00000000	0.10755877
485.00000000	0.11080712
486.00000000	0.11231516
487.00000000	0.11054798
488.00000000	0.11004940
489.00000000	0.10830754
490.00000000	0.11386329
491.00000000	0.11686938
492.00000000	0.12005449
493.00000000	0.12406752
494.00000000	0.12956468
495.00000000	0.13343851
496.00000000	0.13778293
497.00000000	0.14862089
498.00000000	0.15850357
499.00000000	0.16744908
500.00000000	0.17268635
501.00000000	0.18322486
502.00000000	0.19144688
503.00000000	0.20389283
504.00000000	0.21427427
505.00000000	0.22500443
506.00000000	0.23718240
507.00000000	0.24468903
508.00000000	0.25780351
509.00000000	0.26785462
510.00000000	0.27961623
511.00000000	0.28846924
512.00000000	0.30239107
513.00000000	0.31009579
514.00000000	0.32797222
515.00000000	0.33257650
516.00000000	0.34156221
517.00000000	0.35275886
518.00000000	0.36408131
519.00000000	0.36460974
520.00000000	0.37764650
521.00000000	0.39116494
522.00000000	0.39924220
523.00000000	0.40532512
524.00000000	0.41726876
525.00000000	0.42479086
526.00000000	0.43259548
527.00000000	0.43961913
528.00000000	0.45066108
529.00000000	0.45626212
530.00000000	0.46449681
531.00000000	0.46599544
532.00000000	0.47599583
533.00000000	0.47975342
534.00000000	0.48921958
535.00000000	0.49875916
536.00000000	0.49925259
537.00000000	0.50500053
538.00000000	0.51706419
539.00000000	0.52684807
540.00000000	0.53195411
541.00000000	0.54567679
542.00000000	0.54864098
543.00000000	0.55311524
544.00000000	0.56086793
545.00000000	0.56718178
546.00000000	0.57948586
547.00000000	0.59017056
548.00000000	0.60044018
549.00000000	0.60537282
550.00000000	0.60891416
551.00000000	0.62219215
552.00000000	0.63417088
553.00000000	0.64096447
554.00000000	0.65265482
555.00000000	0.66114457
556.00000000	0.68027416
557.00000000	0.69089196
558.00000000	0.68822093
559.00000000	0.70214330
560.00000000	0.71989771
561.00000000	0.73562594
562.00000000	0.73562755
563.00000000	0.75624385
564.00000000	0.75967896
565.00000000	0.77482902
566.00000000	0.78532068
567.00000000	0.79631932
568.00000000	0.80777891
569.00000000	0.81322510
570.00000000	0.81713711
571.00000000	0.83195416
572.00000000	0.83241600
573.00000000	0.85799928
574.00000000	0.85412415
575.00000000	0.86918115
576.00000000	0.88315854
577.00000000	0.88785176
578.00000000	0.89738432
579.00000000	0.90528793
580.00000000	0.91407158
581.00000000	0.92000620
582.00000000	0.93182060
583.00000000	0.93577806
584.00000000	0.94431918
585.00000000	0.95773049
586.00000000	0.96774326
587.00000000	0.97333778
588.00000000	0.97379525
589.00000000	0.97646526
590.00000000	0.97452481
591.00000000	0.98095803
592.00000000	0.97706400
593.00000000	0.98515814
594.00000000	0.98847325
595.00000000	0.98182041
596.00000000	0.99576400
597.00000000	0.98844123
598.00000000	1.00000000
599.00000000	0.99658727
600.00000000	0.99502247
601.00000000	0.98690184
602.00000000	0.98928512
603.00000000	0.98821449
604.00000000	0.98751737
605.00000000	0.98145371
606.00000000	0.97841584
607.00000000	0.97412715
608.00000000	0.96506808
609.00000000	0.94379151
610.00000000	0.94501585
611.00000000	0.94679043
612.00000000	0.93802958
613.00000000	0.92103917
614.00000000	0.92806245
615.00000000	0.91742334
616.00000000	0.90487512
617.00000000	0.90113902
618.00000000	0.90419260
619.00000000	0.89291943
620.00000000	0.88563229
621.00000000	0.87167765
622.00000000	0.85913983
623.00000000	0.85840500
624.00000000	0.84223661
625.00000000	0.82983471
626.00000000	0.83077494
627.00000000	0.80889870
628.00000000	0.79621429
629.00000000	0.78186347
630.00000000	0.77379541
631.00000000	0.76095180
632.00000000	0.74805416
633.00000000	0.73258876
634.00000000	0.72229239
635.00000000	0.72289444
636.00000000	0.70322243
637.00000000	0.68569336
638.00000000	0.68289254
639.00000000	0.66068974
640.00000000	0.65536782
641.00000000	0.64112893
642.00000000	0.62172434
643.00000000	0.61717436
644.00000000	0.61000782
645.00000000	0.59320682
646.00000000	0.58064233
647.00000000	0.57124305
648.00000000	0.55798447
649.00000000	0.55632007
650.00000000	0.53503274
651.00000000	0.52673104
652.00000000	0.51209454
653.00000000	0.50970666
654.00000000	0.49865911
655.00000000	0.48383592
656.00000000	0.47256366
657.00000000	0.45748290
658.00000000	0.44775335
659.00000000	0.44099884
660.00000000	0.43376468
661.00000000	0.42358189
662.00000000	0.41076285
663.00000000	0.39836409
664.00000000	0.38520730
665.00000000	0.37902108
666.00000000	0.37707115
667.00000000	0.37057183
668.00000000	0.35380477
669.00000000	0.34752499
670.00000000	0.34145959
671.00000000	0.33380708
672.00000000	0.32218140
673.00000000	0.31445332
674.00000000	0.30811441
675.00000000	0.29682497
676.00000000	0.29271332
677.00000000	0.27961213
678.00000000	0.28654506
679.00000000	0.26921674
680.00000000	0.26721628
681.00000000	0.25750893
682.00000000	0.24574567
683.00000000	0.24602032
684.00000000	0.24178802
685.00000000	0.23453906
686.00000000	0.22346803
687.00000000	0.22250281
688.00000000	0.20938933
689.00000000	0.20653560
690.00000000	0.19889266
691.00000000	0.19932417
692.00000000	0.19931951
693.00000000	0.19100873
694.00000000	0.18293445
695.00000000	0.17846944
696.00000000	0.16895133
697.00000000	0.16705311
698.00000000	0.16453811
699.00000000	0.16241192
700.00000000	0.15625618
701.00000000	0.15241991
702.00000000	0.14794044
703.00000000	0.14495247
704.00000000	0.13864672
705.00000000	0.13691871
706.00000000	0.13766638
707.00000000	0.13083682
708.00000000	0.12344781
709.00000000	0.12300431
710.00000000	0.12133606
711.00000000	0.11902244
712.00000000	0.10719805
713.00000000	0.11667399
714.00000000	0.09989962
715.00000000	0.10155510
716.00000000	0.09950622
717.00000000	0.09344010
718.00000000	0.09612970
719.00000000	0.09340810
720.00000000	0.09208010
721.00000000	0.09077281
722.00000000	0.08904113
723.00000000	0.08558426
724.00000000	0.07858087
725.00000000	0.07909492
