#LICA Lamps Spectra Database
#Website 1: https://guaix.fis.ucm.es/lamps_spectra
#Website 2: http://carlostapia.es/lamparas/lamps.html
#Latest update: 2018/04/28
#Tester: Carlos Eugenio Tapia Ayuga
#Correct for Electrical Dark: Yes (JAZA2310)
#Correct for Detector Non-linearity: Yes (JAZA2310)
#Correct for Flux: Yes
#Start wavelength (nm): 300
#End wavelength (nm): 900
#Steps (nm):	1
#Locus: D65 sRGB Gamma 1 CIE1931
#XYZ coordinates: 0.1083	0.0963	0.0372
#xyY coordinates: 0.4478	0.3983	0.0963
#sRGB: 47	20	7
#CCT Lindbloom (K):	2776
#CCT McCamy (K):	2776
#CCT Hernández-Andrés (K):	2708
#Melatonin: 0.343
#Chlorophyll a: 0.087
#Chlorophyll b: 0.387
#Beta Carotene: 0.086
#Manufacturer: Philips
#Luminance manufacturer: 1220 lm
#Other data: Master PL Electronics PLE-R 20W/827. 2700K. 60 lm/W.
#Begin Processed Spectral Data
W	S
475.000000	0.010352
476.000000	0.008965
477.000000	0.008153
478.000000	0.011678
479.000000	0.016009
480.000000	0.029810
481.000000	0.042536
482.000000	0.072786
483.000000	0.123774
484.000000	0.200168
485.000000	0.298313
486.000000	0.421652
487.000000	0.503878
488.000000	0.513043
489.000000	0.482665
490.000000	0.417060
491.000000	0.373402
492.000000	0.365338
493.000000	0.312887
494.000000	0.273159
495.000000	0.239594
496.000000	0.215105
497.000000	0.187873
498.000000	0.163594
499.000000	0.139682
500.000000	0.116125
501.000000	0.094754
502.000000	0.074537
503.000000	0.058858
504.000000	0.043928
505.000000	0.035578
506.000000	0.028624
507.000000	0.021241
508.000000	0.018404
509.000000	0.019287
510.000000	0.017594
511.000000	0.014377
512.000000	0.013897
513.000000	0.014532
514.000000	0.012172
515.000000	0.011089
516.000000	0.008864
517.000000	0.007683
518.000000	0.005965
519.000000	0.005971
520.000000	0.008234
521.000000	0.006354
522.000000	0.004203
523.000000	0.004189
524.000000	0.002667
525.000000	0.004838
526.000000	0.006594
527.000000	0.008936
528.000000	0.012336
529.000000	0.012804
530.000000	0.015698
531.000000	0.017799
532.000000	0.027663
533.000000	0.071313
534.000000	0.114879
535.000000	0.100091
536.000000	0.114908
537.000000	0.177110
538.000000	0.306992
539.000000	0.430137
540.000000	0.724814
541.000000	1.466597
542.000000	2.333446
543.000000	2.267840
544.000000	2.172141
545.000000	2.263769
546.000000	3.983066
547.000000	3.587648
548.000000	2.376811
549.000000	1.755104
550.000000	1.216297
551.000000	0.898304
552.000000	0.673323
553.000000	0.511009
554.000000	0.390653
555.000000	0.280344
556.000000	0.202728
557.000000	0.152555
558.000000	0.119319
559.000000	0.092572
560.000000	0.076911
561.000000	0.068549
562.000000	0.065104
563.000000	0.061064
564.000000	0.056744
565.000000	0.052515
566.000000	0.045504
567.000000	0.045607
568.000000	0.043124
569.000000	0.044308
570.000000	0.039553
571.000000	0.033043
572.000000	0.026300
573.000000	0.026067
574.000000	0.025665
575.000000	0.034268
576.000000	0.120530
577.000000	0.742532
578.000000	0.540470
579.000000	0.839081
580.000000	0.738489
581.000000	0.550878
582.000000	0.521972
583.000000	0.569550
584.000000	0.578904
585.000000	0.575100
586.000000	0.558053
587.000000	0.780482
588.000000	0.838662
589.000000	0.565102
590.000000	0.454464
591.000000	0.417211
592.000000	0.483587
593.000000	0.719678
594.000000	0.688790
595.000000	0.502056
596.000000	0.403260
597.000000	0.327434
598.000000	0.328041
599.000000	0.433806
600.000000	0.494376
601.000000	0.407326
602.000000	0.310133
603.000000	0.242659
604.000000	0.214375
605.000000	0.214982
606.000000	0.237905
607.000000	0.294310
608.000000	0.416326
609.000000	0.692809
610.000000	1.671988
611.000000	5.332279
612.000000	6.148979
613.000000	4.322700
614.000000	3.492518
615.000000	2.618390
616.000000	1.706378
617.000000	1.125914
618.000000	0.784827
619.000000	0.578942
620.000000	0.505364
621.000000	0.495667
622.000000	0.499602
623.000000	0.536073
624.000000	0.572382
625.000000	0.602224
626.000000	0.628753
627.000000	0.635170
628.000000	0.611572
629.000000	0.593030
630.000000	0.711091
631.000000	0.993099
632.000000	0.799153
633.000000	0.485582
634.000000	0.336402
635.000000	0.214339
636.000000	0.147455
637.000000	0.121650
638.000000	0.109468
639.000000	0.092366
640.000000	0.091316
641.000000	0.087044
642.000000	0.085997
643.000000	0.088136
644.000000	0.089307
645.000000	0.088034
646.000000	0.086596
647.000000	0.084768
648.000000	0.083789
649.000000	0.105344
650.000000	0.222928
651.000000	0.282485
652.000000	0.210599
653.000000	0.198578
654.000000	0.162811
655.000000	0.125904
656.000000	0.105416
657.000000	0.108127
658.000000	0.118055
659.000000	0.095285
660.000000	0.076441
661.000000	0.079856
662.000000	0.150406
663.000000	0.176978
664.000000	0.129326
665.000000	0.101349
666.000000	0.085453
667.000000	0.076531
668.000000	0.067374
669.000000	0.066447
670.000000	0.061493
671.000000	0.060165
672.000000	0.062255
673.000000	0.051363
674.000000	0.050881
675.000000	0.052017
676.000000	0.050358
677.000000	0.043107
678.000000	0.045870
679.000000	0.051898
680.000000	0.052823
681.000000	0.059408
682.000000	0.057558
683.000000	0.054301
684.000000	0.056627
685.000000	0.054354
686.000000	0.075554
687.000000	0.154461
688.000000	0.179789
689.000000	0.132632
690.000000	0.102647
691.000000	0.081466
692.000000	0.050471
693.000000	0.098732
694.000000	0.128943
695.000000	0.080511
696.000000	0.124658
697.000000	0.111385
698.000000	0.049196
699.000000	0.034409
700.000000	0.023295
701.000000	0.024625
702.000000	0.029417
703.000000	0.043131
704.000000	0.067996
705.000000	0.113166
706.000000	0.328206
707.000000	0.512882
708.000000	0.461119
709.000000	0.579038
710.000000	0.390773
711.000000	0.313839
712.000000	0.466615
713.000000	0.375517
714.000000	0.205434
715.000000	0.132744
716.000000	0.057107
717.000000	0.023518
718.000000	0.021253
719.000000	0.012467
720.000000	0.007075
721.000000	0.008474
722.000000	0.001437
723.000000	0.011507
724.000000	0.000093
725.000000	0.004739
