#Website 1: https://guaix.fis.ucm.es/lamps_spectra
#Website 2: http://carlostapia.es/lamparas/lamps.html
#Latest update: 2018/04/25
#Tester: Carlos Eugenio Tapia Ayuga
#Correct for Electrical Dark: Yes (JAZA2310)
#Correct for Detector Non-linearity: Yes (JAZA2310)
#Correct for Flux: Yes
#Start wavelength (nm): 300
#End wavelength (nm): 900
#Steps (nm):	1
#Locus: D65 sRGB Gamma 1 CIE1931
#XYZ coordinates: 0.3198	0.2928	0.0930
#xyY coordinates: 0.4532	0.4150	0.2928
#sRGB: 138	62	14
#CCT Lindbloom (K):	2829
#CCT McCamy (K):	2831
#CCT Hernández-Andrés (K):	2756
#Melatonin: 0.321
#Chlorophyll a: 0.369
#Chlorophyll b: 0.477
#Beta Carotene: 0.370
#Manufacturer: Unknown
#Luminance manufacturer: Unknown
#Other data: New street lamps in Gregorio Marañón and Ronda streets in Almería.
#Begin Processed Spectral Data
W	S
475.000000	0.158686
476.000000	0.140358
477.000000	0.139989
478.000000	0.156557
479.000000	0.150215
480.000000	0.153159
481.000000	0.152239
482.000000	0.154770
483.000000	0.156866
484.000000	0.147188
485.000000	0.133169
486.000000	0.131731
487.000000	0.128289
488.000000	0.146953
489.000000	0.166302
490.000000	0.157394
491.000000	0.157312
492.000000	0.164970
493.000000	0.152811
494.000000	0.166896
495.000000	0.158084
496.000000	0.156597
497.000000	0.168164
498.000000	0.195761
499.000000	0.222804
500.000000	0.212283
501.000000	0.196131
502.000000	0.188768
503.000000	0.194603
504.000000	0.192982
505.000000	0.214060
506.000000	0.193408
507.000000	0.188339
508.000000	0.189917
509.000000	0.169494
510.000000	0.164015
511.000000	0.170064
512.000000	0.190331
513.000000	0.197065
514.000000	0.188194
515.000000	0.191886
516.000000	0.201071
517.000000	0.201597
518.000000	0.204372
519.000000	0.205427
520.000000	0.200243
521.000000	0.204411
522.000000	0.212316
523.000000	0.218380
524.000000	0.218081
525.000000	0.194012
526.000000	0.201228
527.000000	0.221642
528.000000	0.207031
529.000000	0.200674
530.000000	0.223667
531.000000	0.263106
532.000000	0.264326
533.000000	0.326397
534.000000	0.538093
535.000000	0.861470
536.000000	1.071837
537.000000	1.506060
538.000000	1.597470
539.000000	1.593819
540.000000	1.382933
541.000000	1.042416
542.000000	0.715667
543.000000	0.504249
544.000000	0.347637
545.000000	0.327769
546.000000	0.624216
547.000000	0.639302
548.000000	0.426744
549.000000	0.365570
550.000000	0.271762
551.000000	0.220680
552.000000	0.205757
553.000000	0.213354
554.000000	0.214514
555.000000	0.233090
556.000000	0.223340
557.000000	0.216949
558.000000	0.213912
559.000000	0.240222
560.000000	0.244024
561.000000	0.231856
562.000000	0.223726
563.000000	0.247670
564.000000	0.290493
565.000000	0.303685
566.000000	0.300382
567.000000	0.342698
568.000000	0.454010
569.000000	0.669880
570.000000	0.636633
571.000000	0.505963
572.000000	0.434898
573.000000	0.352011
574.000000	0.312770
575.000000	0.309423
576.000000	0.333142
577.000000	0.380408
578.000000	0.366879
579.000000	0.390383
580.000000	0.385044
581.000000	0.368637
582.000000	0.352703
583.000000	0.352301
584.000000	0.370441
585.000000	0.422111
586.000000	0.541162
587.000000	0.765743
588.000000	0.976694
589.000000	0.632090
590.000000	0.450762
591.000000	0.523824
592.000000	0.711772
593.000000	0.943954
594.000000	1.135612
595.000000	1.280566
596.000000	1.341082
597.000000	1.331162
598.000000	1.335040
599.000000	1.311131
600.000000	1.240863
601.000000	1.190051
602.000000	1.117816
603.000000	1.055484
604.000000	1.006381
605.000000	0.933291
606.000000	0.905666
607.000000	0.855067
608.000000	0.831334
609.000000	0.826913
610.000000	0.779354
611.000000	0.758535
612.000000	0.718208
613.000000	0.693255
614.000000	0.663743
615.000000	0.651618
616.000000	0.734679
617.000000	0.740276
618.000000	0.652897
619.000000	0.622679
620.000000	0.581244
621.000000	0.539004
622.000000	0.510250
623.000000	0.506961
624.000000	0.493009
625.000000	0.498854
626.000000	0.597952
627.000000	0.553828
628.000000	0.525299
629.000000	0.503039
630.000000	0.494459
631.000000	0.492850
632.000000	0.458804
633.000000	0.448947
634.000000	0.444898
635.000000	0.436042
636.000000	0.438025
637.000000	0.461093
638.000000	0.466690
639.000000	0.461401
640.000000	0.451854
641.000000	0.447544
642.000000	0.438122
643.000000	0.409114
644.000000	0.415712
645.000000	0.405289
646.000000	0.407551
647.000000	0.412258
648.000000	0.399117
649.000000	0.388905
650.000000	0.367130
651.000000	0.346347
652.000000	0.335780
653.000000	0.326571
654.000000	0.337585
655.000000	0.387591
656.000000	0.404092
657.000000	0.389781
658.000000	0.423845
659.000000	0.387788
660.000000	0.367836
661.000000	0.371822
662.000000	0.326949
663.000000	0.330113
664.000000	0.311727
665.000000	0.305190
666.000000	0.319246
667.000000	0.336532
668.000000	0.319552
669.000000	0.331252
670.000000	0.455029
671.000000	0.672839
672.000000	0.508659
673.000000	0.448838
674.000000	0.417096
675.000000	0.359118
676.000000	0.327557
677.000000	0.312786
678.000000	0.304724
679.000000	0.297043
680.000000	0.281237
681.000000	0.261350
682.000000	0.259468
683.000000	0.295054
684.000000	0.299874
685.000000	0.298589
686.000000	0.280337
687.000000	0.244207
688.000000	0.222604
689.000000	0.210688
690.000000	0.206608
691.000000	0.195001
692.000000	0.190082
693.000000	0.198878
694.000000	0.183271
695.000000	0.200157
696.000000	0.211027
697.000000	0.185919
698.000000	0.173044
699.000000	0.191734
700.000000	0.185054
701.000000	0.184298
702.000000	0.178349
703.000000	0.171412
704.000000	0.164827
705.000000	0.150092
706.000000	0.161599
707.000000	0.140156
708.000000	0.151104
709.000000	0.150201
710.000000	0.146971
711.000000	0.130289
712.000000	0.138914
713.000000	0.138423
714.000000	0.133435
715.000000	0.146459
716.000000	0.138150
717.000000	0.131260
718.000000	0.127018
719.000000	0.134795
720.000000	0.132058
721.000000	0.138900
722.000000	0.122132
723.000000	0.124457
724.000000	0.121158
725.000000	0.127350
