# Spectrum of Vienna - 2012
# from Night sky photometry and spectroscopy performed at the Vienna University Observatory - Puschnig
# digitalized by PlotDigitizer 2.6.8
# 18/02/2019
#
#
# wavelength intensity
451.003	0.13469
451.733	0.138322
452.006	0.139973
452.645	0.146575
453.101	0.143273
453.557	0.141293
453.921	0.138652
454.104	0.13403
454.286	0.130399
455.289	0.126767
455.745	0.120825
455.836	0.112572
456.201	0.108941
456.84	0.111582
457.113	0.120495
457.387	0.123467
458.39	0.124787
459.575	0.123796
460.214	0.122146
460.761	0.128748
461.582	0.125447
463.223	0.124787
463.497	0.129078
464.135	0.123796
464.5	0.127098
465.868	0.129078
466.689	0.129078
466.871	0.128418
467.327	0.128088
467.874	0.130729
468.33	0.13337
468.968	0.126438
469.607	0.124127
470.063	0.122476
470.701	0.128748
471.431	0.128748
471.978	0.13271
472.343	0.135021
472.89	0.13403
474.242	0.137552
474.47	0.139477
474.85	0.135901
475.23	0.131774
475.838	0.127098
476.37	0.124071
476.826	0.122421
477.054	0.12022
477.89	0.124622
477.966	0.127372
478.954	0.128198
479.41	0.133975
480.094	0.13205
480.702	0.136176
481.234	0.140302
481.538	0.143053
482.526	0.146905
483.134	0.149656
483.59	0.154608
483.818	0.15901
484.654	0.152958
485.034	0.167262
485.414	0.179367
486.022	0.180743
486.858	0.182119
487.39	0.188995
487.922	0.190646
488.757	0.184319
489.441	0.179367
489.973	0.177441
490.885	0.180192
491.493	0.180743
492.025	0.176616
492.405	0.174965
493.469	0.175516
494.761	0.176616
495.293	0.175241
495.673	0.178542
496.357	0.180743
496.585	0.183494
497.193	0.203026
497.345	0.189271
497.649	0.209079
498.409	0.211004
499.017	0.205777
499.473	0.2
499.853	0.18487
500.005	0.177441
500.461	0.172765
500.689	0.161761
501.069	0.152407
501.449	0.148005
501.905	0.150207
502.361	0.154883
502.665	0.150481
504.26	0.14828
505.248	0.150207
506.084	0.142228
506.236	0.14718
506.768	0.155158
507.224	0.158184
507.832	0.157084
508.44	0.151582
509.352	0.151307
511.176	0.138102
511.404	0.145255
513.152	0.148005
514.444	0.153783
515.432	0.158184
515.584	0.165887
516.496	0.153783
517.94	0.14608
518.776	0.149931
519.535	0.153507
520.903	0.149656
521.283	0.157359
522.119	0.16066
522.803	0.145805
523.107	0.149381
524.931	0.16011
525.235	0.149931
526.451	0.153507
528.123	0.14663
528.579	0.160385
529.719	0.169189
531.467	0.172765
531.771	0.18487
532.911	0.186795
533.367	0.206877
533.671	0.238239
534.127	0.274828
534.431	0.323796
534.886	0.376341
535.266	0.418432
535.57	0.437414
535.95	0.434388
536.254	0.422283
536.634	0.397249
536.938	0.381843
537.394	0.371389
538.23	0.364787
538.838	0.358735
539.598	0.365337
540.054	0.377441
540.434	0.391472
540.89	0.430811
541.194	0.478129
541.726	0.528748
542.258	0.569739
542.714	0.601375
543.094	0.619532
544.006	0.623108
544.538	0.669326
544.994	0.77304
545.45	0.900963
545.678	0.929298
545.982	1
546.894	0.726547
547.046	0.900963
547.122	0.844566
547.198	0.643741
547.35	0.793122
547.426	0.576066
547.806	0.491059
548.11	0.431637
548.718	0.370839
549.098	0.341678
549.934	0.322971
550.465	0.316093
551.301	0.277029
552.517	0.281155
552.897	0.25337
553.809	0.240991
554.645	0.229986
556.089	0.222834
556.773	0.230537
557.381	0.24264
557.989	0.243742
558.521	0.242366
559.357	0.22861
559.585	0.225309
559.965	0.225309
560.877	0.220082
564.449	0.235213
565.437	0.244291
565.892	0.257497
566.728	0.275378
567.26	0.337551
567.64	0.388171
567.792	0.431912
568.02	0.481431
568.248	0.514718
568.856	0.519945
569.312	0.494085
569.54	0.461623
569.92	0.417607
570.528	0.333975
570.832	0.291884
571.44	0.274278
571.972	0.271527
572.808	0.245667
573.492	0.243191
574.024	0.251169
574.632	0.264649
575.392	0.277579
575.544	0.289133
575.848	0.338102
576.532	0.397249
576.912	0.408804
578.052	0.410179
578.508	0.415681
579.04	0.452819
579.648	0.438514
579.876	0.418432
580.332	0.386244
581.395	0.386795
582.307	0.411004
582.991	0.444016
584.055	0.457771
585.271	0.457222
586.031	0.489409
587.171	0.503439
587.779	0.510867
588.235	0.47978
588.691	0.456946
589.831	0.438514
590.439	0.459697
591.503	0.489683
592.491	0.522146
593.327	0.548281
593.859	0.529298
594.543	0.504539
595.303	0.47923
596.063	0.46685
597.05	0.458322
598.874	0.451995
599.938	0.433013
600.774	0.412104
600.85	0.387345
601.686	0.376341
602.598	0.353783
604.194	0.344979
605.106	0.333975
606.094	0.331775
607.614	0.338102
608.146	0.347456
608.602	0.358184
609.134	0.437414
609.362	0.464649
609.438	0.395323
609.818	0.505915
610.122	0.564787
610.578	0.666025
610.654	0.716368
610.73	0.825584
610.806	0.892435
611.034	0.945255
611.414	0.963411
611.793	0.907015
612.021	0.845667
612.249	0.770839
612.553	0.706189
613.085	0.60055
613.617	0.512517
613.921	0.501788
614.453	0.488858
615.517	0.483081
616.505	0.423383
617.189	0.368913
617.493	0.341678
618.937	0.341127
619.697	0.344704
620.457	0.339753
621.521	0.322971
621.977	0.301513
622.965	0.301788
624.105	0.297387
624.637	0.300688
626.081	0.29216
626.309	0.302614
626.841	0.273452
628.208	0.269876
629.12	0.273178
629.728	0.301788
630.792	0.318845
631.628	0.295461
631.856	0.273727
632.16	0.257497
632.54	0.242366
633.452	0.234113
634.06	0.228336
634.516	0.220907
635.732	0.218707
635.96	0.220082
636.872	0.215681
637.784	0.223659
638.772	0.215131
639.912	0.223109
640.824	0.21293
641.584	0.206328
642.268	0.199174
642.799	0.195598
643.255	0.202201
643.635	0.206877
644.243	0.208528
644.927	0.20165
645.459	0.196974
646.219	0.207978
647.587	0.204127
649.031	0.200276
650.399	0.219257
651.007	0.210454
651.615	0.204401
652.147	0.190371
652.907	0.193947
654.275	0.20165
656.099	0.192573
656.707	0.176891
658.378	0.190922
658.986	0.185144
659.974	0.191747
661.722	0.194498
663.166	0.190922
663.85	0.186795
665.37	0.181843
666.282	0.180192
667.194	0.190096
668.258	0.179917
668.79	0.190646
669.474	0.184044
670.69	0.21238
671.602	0.202751
672.286	0.18707
672.59	0.182119
673.501	0.178817
673.729	0.171389
674.793	0.177167
676.161	0.176616
677.605	0.171664
678.973	0.172765
680.417	0.173865
681.861	0.165887
683.001	0.166713
683.305	0.170564
683.685	0.175516
684.673	0.162311
685.813	0.179917
686.041	0.151857
686.573	0.147731
687.713	0.141953
688.472	0.150756
689.004	0.14718
690.144	0.151032
691.208	0.146905
693.564	0.163137
694.628	0.147731
695.92	0.159835
696.224	0.165062
696.756	0.16011
697.744	0.168638
698.504	0.161761
698.96	0.153507
699.492	0.153232
700.252	0.16066
701.468	0.14718
702.608	0.158734
704.735	0.161486
705.419	0.171389
706.787	0.187895
708.003	0.177167
708.535	0.172489
709.143	0.17414
710.815	0.166988
712.259	0.166988
713.475	0.16066
713.627	0.154883
714.387	0.150207
715.831	0.145255
715.983	0.138102
716.971	0.143053
718.035	0.130674
719.023	0.139753
721.226	0.142778
722.214	0.143053
723.278	0.144704
724.874	0.142228
726.014	0.140028
727.838	0.152407
728.75	0.145805
729.89	0.141678
731.41	0.134801
733.766	0.152683
735.437	0.136726
736.729	0.149381
737.945	0.151582
739.009	0.149656
740.377	0.144154
741.517	0.140853
742.429	0.146355
743.037	0.149931
743.645	0.141953
745.165	0.152132
746.229	0.135075
747.217	0.147455
748.965	0.16066
749.725	0.151857
751.852	0.157359
752.688	0.14608
754.436	0.140028
755.272	0.151857
756.488	0.158184
758.16	0.167262
758.92	0.158184
760.516	0.096011
762.188	0.104814
762.34	0.110317
762.796	0.102614
763.708	0.111417
764.544	0.100963
764.924	0.13535
765.759	0.158459
767.127	0.167813
768.343	0.17414
769.407	0.196698
770.091	0.185419
770.775	0.170564
771.459	0.176616
772.219	0.168088
772.751	0.17304
774.803	0.157634
775.259	0.162311
776.475	0.152683
777.311	0.144154
778.147	0.150207
779.667	0.155434
780.199	0.156259
781.566	0.159835
781.946	0.153232
783.162	0.150481
784.758	0.153783
784.91	0.157359
785.67	0.163137
786.43	0.151582
787.57	0.141403
788.482	0.148556
790.306	0.140853
791.37	0.152683
791.446	0.16066
792.206	0.144704
792.814	0.135075
793.802	0.123521
794.486	0.136726
796.537	0.132875
796.993	0.143329
798.437	0.123521
800.033	0.157084
800.337	0.139477
800.793	0.149931
802.389	0.154883
802.845	0.143329
803.833	0.153232
804.821	0.137277
806.797	0.156808
807.633	0.136726
808.469	0.149106
809.457	0.211279
810.141	0.302339
810.597	0.378542
810.901	0.410729
811.584	0.385695
812.116	0.31912
812.724	0.18707
812.8	0.25447
813.028	0.150756
814.7	0.156259
814.776	0.151307
817.056	0.304539
817.132	0.238515
817.36	0.38762
817.664	0.470151
818.12	0.544429
818.272	0.628335
818.956	0.696011
819.716	0.670151
819.944	0.603301
820.096	0.552407
820.476	0.459973
821.008	0.385144
821.312	0.302614
821.844	0.250343
822.908	0.18652
823.516	0.173315
824.048	0.161761
825.264	0.172489
826.935	0.197249
827.315	0.163962
828.455	0.18762
829.747	0.207978
830.431	0.195873
830.811	0.152958
831.571	0.143879
832.407	0.137826
833.851	0.141953
834.155	0.151857
835.295	0.156259
835.827	0.150481
836.283	0.138927
836.739	0.122146
837.347	0.14663
838.411	0.130399
839.399	0.143879
840.311	0.155983
841.071	0.162861
842.514	0.169464
842.97	0.171389
843.578	0.159835
844.338	0.163137
844.946	0.136451
845.858	0.129023
846.998	0.137552
847.53	0.132325
848.518	0.134801
849.81	0.139477
